{ Units, Wavelength Units } SI Nanometers
{ Thickness } 12 
{ Conductivity } 1
{ IR Transmittance } TIR=0.000
{ Emissivity, front back } Emis= 0.84 0.0345
{ Product Name: ILC2019_2 Low-e on frits 12mm substrate}
{ Manufacturer: Generic  }
{ Type: Coated }
{ Coated Side: Back }
{ Extrapolation: Specular glazing }
{ Appearance: Hazy}
{ wavelength Tf_n-dir Tf_n-dif Tb_n-dir Tb_n-dif Rf_n-dir Rf_n-dif Rb_n-dir Rb_n-dif }
  300.000    0.0000    0.0025    0.0000    0.0009    0.2949    0.0799    0.0389    0.0100
  305.000    0.0000    0.0011    0.0000    0.0008    0.3044    0.0767    0.0387    0.0069
  310.000    0.0001    0.0005    0.0000    0.0007    0.3190    0.0726    0.0392    0.0051
  315.000    0.0000    0.0012    0.0003    0.0006    0.3359    0.0758    0.0387    0.0069
  320.000    0.0000    0.0012    0.0000    0.0016    0.3523    0.0800    0.0387    0.0069
  325.000    0.0000    0.0017    0.0002    0.0017    0.3681    0.0835    0.0390    0.0069
  330.000    0.0007    0.0012    0.0012    0.0012    0.3814    0.0836    0.0401    0.0076
  335.000    0.0010    0.0019    0.0011    0.0016    0.3891    0.0829    0.0405    0.0085
  340.000    0.0013    0.0028    0.0015    0.0019    0.3918    0.0839    0.0409    0.0094
  345.000    0.0017    0.0027    0.0020    0.0019    0.3896    0.0843    0.0412    0.0104
  350.000    0.0021    0.0021    0.0021    0.0023    0.3843    0.0826    0.0412    0.0122
  355.000    0.0027    0.0026    0.0023    0.0031    0.3801    0.0791    0.0412    0.0140
  360.000    0.0036    0.0038    0.0032    0.0041    0.3785    0.0786    0.0415    0.0166
  365.000    0.0056    0.0058    0.0050    0.0062    0.3862    0.0773    0.0422    0.0223
  370.000    0.0085    0.0094    0.0079    0.0097    0.4044    0.0773    0.0435    0.0311
  375.000    0.0121    0.0157    0.0116    0.0156    0.4249    0.0773    0.0455    0.0422
  380.000    0.0167    0.0237    0.0158    0.0246    0.4373    0.0771    0.0475    0.0601
  385.000    0.0214    0.0340    0.0204    0.0365    0.4353    0.0773    0.0493    0.0818
  390.000    0.0264    0.0467    0.0251    0.0513    0.4203    0.0769    0.0507    0.1032
  395.000    0.0320    0.0612    0.0305    0.0690    0.3962    0.0761    0.0513    0.1214
  400.000    0.0384    0.0769    0.0366    0.0891    0.3650    0.0736    0.0517    0.1325
  405.000    0.0453    0.0948    0.0433    0.1103    0.3262    0.0737    0.0509    0.1365
  410.000    0.0527    0.1137    0.0506    0.1306    0.2819    0.0731    0.0502    0.1333
  415.000    0.0607    0.1339    0.0583    0.1518    0.2353    0.0696    0.0493    0.1275
  420.000    0.0687    0.1556    0.0667    0.1723    0.1882    0.0675    0.0480    0.1217
  425.000    0.0771    0.1769    0.0747    0.1904    0.1433    0.0656    0.0467    0.1148
  430.000    0.0841    0.1979    0.0825    0.2064    0.1039    0.0632    0.0453    0.1086
  435.000    0.0906    0.2170    0.0895    0.2212    0.0715    0.0607    0.0444    0.1026
  440.000    0.0963    0.2333    0.0955    0.2328    0.0472    0.0578    0.0436    0.0970
  445.000    0.1007    0.2476    0.1002    0.2424    0.0311    0.0560    0.0427    0.0936
  450.000    0.1042    0.2582    0.1040    0.2498    0.0218    0.0552    0.0422    0.0911
  455.000    0.1066    0.2659    0.1065    0.2562    0.0181    0.0550    0.0419    0.0897
  460.000    0.1083    0.2709    0.1085    0.2599    0.0183    0.0555    0.0417    0.0891
  465.000    0.1095    0.2744    0.1095    0.2634    0.0216    0.0562    0.0417    0.0893
  470.000    0.1102    0.2764    0.1104    0.2663    0.0257    0.0573    0.0417    0.0900
  475.000    0.1109    0.2777    0.1112    0.2677    0.0302    0.0588    0.0419    0.0908
  480.000    0.1114    0.2782    0.1116    0.2692    0.0344    0.0603    0.0420    0.0919
  485.000    0.1121    0.2784    0.1118    0.2710    0.0381    0.0619    0.0423    0.0927
  490.000    0.1127    0.2783    0.1122    0.2726    0.0407    0.0639    0.0426    0.0937
  495.000    0.1135    0.2789    0.1129    0.2743    0.0421    0.0660    0.0427    0.0947
  500.000    0.1144    0.2785    0.1133    0.2756    0.0427    0.0680    0.0426    0.0957
  505.000    0.1151    0.2795    0.1144    0.2769    0.0423    0.0700    0.0426    0.0965
  510.000    0.1165    0.2803    0.1148    0.2793    0.0414    0.0711    0.0427    0.0967
  515.000    0.1176    0.2812    0.1163    0.2807    0.0397    0.0725    0.0427    0.0969
  520.000    0.1187    0.2822    0.1173    0.2822    0.0376    0.0738    0.0427    0.0967
  525.000    0.1202    0.2834    0.1190    0.2840    0.0352    0.0747    0.0427    0.0964
  530.000    0.1215    0.2847    0.1203    0.2858    0.0326    0.0753    0.0425    0.0962
  535.000    0.1231    0.2861    0.1217    0.2875    0.0303    0.0755    0.0424    0.0958
  540.000    0.1245    0.2881    0.1234    0.2894    0.0281    0.0751    0.0424    0.0950
  545.000    0.1261    0.2902    0.1250    0.2911    0.0262    0.0751    0.0424    0.0948
  550.000    0.1279    0.2910    0.1263    0.2922    0.0246    0.0746    0.0425    0.0937
  555.000    0.1292    0.2915    0.1280    0.2927    0.0234    0.0734    0.0421    0.0930
  560.000    0.1305    0.2922    0.1297    0.2930    0.0226    0.0723    0.0421    0.0916
  565.000    0.1318    0.2932    0.1308    0.2930    0.0223    0.0714    0.0421    0.0905
  570.000    0.1332    0.2927    0.1320    0.2923    0.0222    0.0699    0.0419    0.0896
  575.000    0.1339    0.2924    0.1333    0.2915    0.0226    0.0678    0.0420    0.0881
  580.000    0.1350    0.2919    0.1340    0.2909    0.0232    0.0661    0.0420    0.0864
  585.000    0.1358    0.2903    0.1352    0.2898    0.0240    0.0646    0.0418    0.0857
  590.000    0.1367    0.2895    0.1362    0.2887    0.0250    0.0631    0.0419    0.0840
  595.000    0.1376    0.2894    0.1372    0.2874    0.0263    0.0613    0.0417    0.0826
  600.000    0.1386    0.2886    0.1381    0.2860    0.0276    0.0597    0.0416    0.0824
  605.000    0.1393    0.2873    0.1390    0.2833    0.0289    0.0580    0.0416    0.0827
  610.000    0.1397    0.2858    0.1397    0.2801    0.0307    0.0565    0.0416    0.0821
  615.000    0.1403    0.2843    0.1404    0.2770    0.0325    0.0547    0.0416    0.0817
  620.000    0.1408    0.2818    0.1406    0.2736    0.0350    0.0523    0.0415    0.0821
  625.000    0.1411    0.2789    0.1409    0.2695    0.0376    0.0510    0.0416    0.0830
  630.000    0.1409    0.2761    0.1408    0.2635    0.0411    0.0493    0.0416    0.0839
  635.000    0.1404    0.2730    0.1407    0.2568    0.0455    0.0468    0.0415    0.0855
  640.000    0.1397    0.2696    0.1398    0.2501    0.0511    0.0448    0.0416    0.0868
  645.000    0.1387    0.2641    0.1388    0.2422    0.0579    0.0428    0.0418    0.0892
  650.000    0.1372    0.2582    0.1376    0.2335    0.0665    0.0400    0.0418    0.0919
  655.000    0.1355    0.2533    0.1356    0.2244    0.0768    0.0373    0.0420    0.0963
  660.000    0.1334    0.2471    0.1334    0.2156    0.0892    0.0350    0.0425    0.1011
  665.000    0.1303    0.2393    0.1306    0.2063    0.1041    0.0324    0.0430    0.1059
  670.000    0.1273    0.2312    0.1277    0.1967    0.1211    0.0309    0.0435    0.1116
  675.000    0.1236    0.2226    0.1241    0.1867    0.1405    0.0283    0.0443    0.1170
  680.000    0.1194    0.2131    0.1200    0.1770    0.1619    0.0257    0.0453    0.1246
  685.000    0.1146    0.2034    0.1154    0.1659    0.1855    0.0235    0.0462    0.1322
  690.000    0.1098    0.1920    0.1101    0.1569    0.2108    0.0214    0.0477    0.1409
  695.000    0.1046    0.1833    0.1048    0.1472    0.2378    0.0204    0.0490    0.1480
  700.000    0.0993    0.1726    0.0998    0.1369    0.2655    0.0197    0.0505    0.1578
  705.000    0.0938    0.1603    0.0941    0.1284    0.2941    0.0164    0.0521    0.1660
  710.000    0.0881    0.1511    0.0888    0.1187    0.3230    0.0168    0.0538    0.1726
  715.000    0.0826    0.1404    0.0831    0.1093    0.3522    0.0169    0.0555    0.1832
  720.000    0.0771    0.1303    0.0776    0.1009    0.3802    0.0157    0.0573    0.1912
  725.000    0.0719    0.1202    0.0725    0.0927    0.4078    0.0154    0.0593    0.2000
  730.000    0.0668    0.1110    0.0675    0.0863    0.4347    0.0166    0.0611    0.2094
  735.000    0.0619    0.1023    0.0626    0.0793    0.4606    0.0173    0.0624    0.2174
  740.000    0.0573    0.0944    0.0583    0.0725    0.4851    0.0209    0.0648    0.2255
  745.000    0.0530    0.0881    0.0540    0.0656    0.5088    0.0197    0.0665    0.2359
  750.000    0.0490    0.0815    0.0498    0.0616    0.5305    0.0218    0.0681    0.2432
  755.000    0.0453    0.0750    0.0461    0.0578    0.5514    0.0197    0.0701    0.2486
  760.000    0.0418    0.0696    0.0426    0.0534    0.5708    0.0244    0.0717    0.2593
  765.000    0.0390    0.0616    0.0397    0.0486    0.5897    0.0248    0.0733    0.2678
  770.000    0.0360    0.0569    0.0365    0.0444    0.6055    0.0215    0.0752    0.2740
  775.000    0.0332    0.0529    0.0338    0.0405    0.6218    0.0233    0.0767    0.2764
  780.000    0.0306    0.0484    0.0314    0.0383    0.6368    0.0321    0.0784    0.2848
  785.000    0.0285    0.0420    0.0290    0.0360    0.6509    0.0251    0.0801    0.2896
  790.000    0.0263    0.0364    0.0268    0.0318    0.6629    0.0247    0.0819    0.2986
  795.000    0.0244    0.0365    0.0250    0.0299    0.6744    0.0284    0.0829    0.3055
  800.000    0.0227    0.0366    0.0234    0.0292    0.6868    0.0250    0.0847    0.3054
  805.000    0.0212    0.0343    0.0217    0.0275    0.6958    0.0255    0.0858    0.3083
  810.000    0.0197    0.0316    0.0201    0.0255    0.7053    0.0264    0.0874    0.3125
  815.000    0.0184    0.0292    0.0189    0.0237    0.7145    0.0282    0.0889    0.3173
  820.000    0.0172    0.0272    0.0177    0.0221    0.7216    0.0296    0.0899    0.3209
  825.000    0.0161    0.0254    0.0163    0.0210    0.7301    0.0296    0.0918    0.3235
  830.000    0.0151    0.0237    0.0154    0.0196    0.7376    0.0289    0.0927    0.3267
  835.000    0.0142    0.0223    0.0143    0.0186    0.7437    0.0298    0.0938    0.3304
  840.000    0.0133    0.0209    0.0136    0.0175    0.7506    0.0291    0.0952    0.3327
  845.000    0.0124    0.0198    0.0129    0.0164    0.7568    0.0287    0.0969    0.3343
  850.000    0.0119    0.0183    0.0122    0.0156    0.7620    0.0285    0.0982    0.3375
  855.000    0.0111    0.0175    0.0113    0.0148    0.7659    0.0314    0.0985    0.3409
  860.000    0.0096    0.0170    0.0000    0.0467    0.7382    0.0644    0.1118    0.3316
  865.000    0.0087    0.0161    0.0262    0.0000    0.7693    0.0383    0.0804    0.3652
  870.000    0.0180    0.0047    0.0000    0.0302    0.7667    0.0438    0.1006    0.3473
  875.000    0.0214    0.0000    0.0172    0.0036    0.7756    0.0433    0.1079    0.3420
  880.000    0.0013    0.0175    0.0143    0.0056    0.7708    0.0516    0.0965    0.3593
  885.000    0.0000    0.0184    0.0000    0.0256    0.7903    0.0371    0.1097    0.3498
  890.000    0.0117    0.0071    0.0092    0.0083    0.7851    0.0495    0.0994    0.3663
  895.000    0.0060    0.0121    0.0061    0.0073    0.7941    0.0507    0.1063    0.3643
  900.000    0.0088    0.0086    0.0113    0.0007    0.8079    0.0432    0.1019    0.3722
  905.000    0.0000    0.0184    0.0022    0.0096    0.7848    0.0707    0.1043    0.3732
  910.000    0.0057    0.0098    0.0054    0.0060    0.7987    0.0603    0.1139    0.3667
  915.000    0.0070    0.0076    0.0081    0.0028    0.8046    0.0577    0.1081    0.3752
  920.000    0.0000    0.0173    0.0084    0.0023    0.7958    0.0695    0.1060    0.3800
  925.000    0.0129    0.0003    0.0062    0.0039    0.8157    0.0529    0.1157    0.3734
  930.000    0.0018    0.0105    0.0037    0.0060    0.8048    0.0666    0.1077    0.3837
  935.000    0.0092    0.0026    0.0092    0.0002    0.8210    0.0532    0.1147    0.3793
  940.000    0.0003    0.0110    0.0029    0.0063    0.8070    0.0695    0.1173    0.3793
  945.000    0.0043    0.0062    0.0005    0.0080    0.8189    0.0601    0.1181    0.3811
  950.000    0.0049    0.0053    0.0126    0.0000    0.8240    0.0573    0.1235    0.3778
  955.000    0.0043    0.0055    0.0000    0.0098    0.8248    0.0588    0.1141    0.3894
  960.000    0.0007    0.0083    0.0069    0.0009    0.8288    0.0572    0.1149    0.3915
  965.000    0.0059    0.0030    0.0000    0.0129    0.8226    0.0653    0.1248    0.3836
  970.000    0.0090    0.0000    0.0000    0.0080    0.8254    0.0643    0.1288    0.3817
  975.000    0.0000    0.0103    0.0049    0.0020    0.8280    0.0636    0.1231    0.3894
  980.000    0.0010    0.0070    0.0130    0.0000    0.8287    0.0645    0.1211    0.3936
  985.000    0.0055    0.0021    0.0000    0.0105    0.8229    0.0720    0.1271    0.3898
  990.000    0.0076    0.0000    0.0037    0.0025    0.8372    0.0594    0.1339    0.3853
  995.000    0.0000    0.0134    0.0022    0.0038    0.8388    0.0594    0.1269    0.3943
 1000.000    0.0000    0.0084    0.0075    0.0000    0.8322    0.0673    0.1338    0.3893
 1005.000    0.0123    0.0000    0.0015    0.0041    0.8352    0.0657    0.1319    0.3932
 1010.000    0.0065    0.0000    0.0021    0.0033    0.8429    0.0594    0.1355    0.3916
 1015.000    0.0000    0.0129    0.0029    0.0024    0.8386    0.0651    0.1325    0.3965
 1020.000    0.0022    0.0036    0.0049    0.0001    0.8378    0.0670    0.1360    0.3945
 1025.000    0.0074    0.0000    0.0043    0.0006    0.8454    0.0607    0.1391    0.3938
 1030.000    0.0002    0.0052    0.0000    0.0054    0.8424    0.0647    0.1428    0.3918
 1035.000    0.0000    0.0108    0.0008    0.0037    0.8425    0.0656    0.1364    0.4000
 1040.000    0.0084    0.0000    0.0024    0.0020    0.8404    0.0688    0.1412    0.3970
 1045.000    0.0055    0.0000    0.0037    0.0005    0.8484    0.0619    0.1425    0.3975
 1050.000    0.0001    0.0046    0.0011    0.0030    0.8501    0.0613    0.1443    0.3973
 1055.000    0.0000    0.0066    0.0006    0.0034    0.8447    0.0675    0.1419    0.4013
 1060.000    0.0057    0.0000    0.0027    0.0012    0.8479    0.0650    0.1465    0.3985
 1065.000    0.0008    0.0035    0.0039    0.0000    0.8519    0.0619    0.1482    0.3984
 1070.000    0.0023    0.0019    0.0007    0.0029    0.8501    0.0645    0.1503    0.3976
 1075.000    0.0014    0.0027    0.0027    0.0008    0.8471    0.0684    0.1499    0.4000
 1080.000    0.0017    0.0022    0.0003    0.0031    0.8495    0.0668    0.1507    0.4005
 1085.000    0.0004    0.0034    0.0000    0.0047    0.8541    0.0629    0.1550    0.3980
 1090.000    0.0002    0.0035    0.0036    0.0000    0.8570    0.0609    0.1544    0.3998
 1095.000    0.0021    0.0015    0.0048    0.0000    0.8602    0.0585    0.1514    0.4047
 1100.000    0.0003    0.0032    0.0032    0.0000    0.8562    0.0630    0.1527    0.4049
 1105.000    0.0026    0.0009    0.0026    0.0004    0.8516    0.0681    0.1561    0.4032
 1110.000    0.0020    0.0013    0.0000    0.0044    0.8576    0.0627    0.1607    0.3998
 1115.000    0.0019    0.0014    0.0011    0.0017    0.8603    0.0606    0.1595    0.4025
 1120.000    0.0000    0.0036    0.0009    0.0019    0.8555    0.0656    0.1589    0.4043
 1125.000    0.0006    0.0025    0.0019    0.0008    0.8563    0.0654    0.1637    0.4010
 1130.000    0.0028    0.0003    0.0024    0.0001    0.8629    0.0597    0.1655    0.4011
 1135.000    0.0017    0.0012    0.0000    0.0050    0.8651    0.0581    0.1655    0.4021
 1140.000    0.0000    0.0035    0.0001    0.0023    0.8573    0.0665    0.1625    0.4070
 1145.000    0.0016    0.0013    0.0019    0.0005    0.8584    0.0659    0.1701    0.4009
 1150.000    0.0002    0.0026    0.0031    0.0000    0.8629    0.0619    0.1685    0.4035
 1155.000    0.0013    0.0014    0.0014    0.0009    0.8647    0.0607    0.1707    0.4027
 1160.000    0.0000    0.0027    0.0000    0.0033    0.8602    0.0657    0.1710    0.4038
 1165.000    0.0010    0.0016    0.0000    0.0021    0.8619    0.0645    0.1712    0.4050
 1170.000    0.0002    0.0023    0.0000    0.0029    0.8617    0.0652    0.1739    0.4043
 1175.000    0.0006    0.0020    0.0024    0.0000    0.8651    0.0622    0.1753    0.4038
 1180.000    0.0000    0.0029    0.0017    0.0004    0.8645    0.0634    0.1765    0.4036
 1185.000    0.0000    0.0033    0.0041    0.0000    0.8661    0.0622    0.1794    0.4023
 1190.000    0.0000    0.0027    0.0030    0.0000    0.8673    0.0611    0.1805    0.4026
 1195.000    0.0003    0.0020    0.0027    0.0000    0.8635    0.0655    0.1791    0.4054
 1200.000    0.0024    0.0000    0.0014    0.0005    0.8654    0.0639    0.1803    0.4055
 1205.000    0.0015    0.0008    0.0000    0.0025    0.8705    0.0594    0.1846    0.4025
 1210.000    0.0000    0.0031    0.0000    0.0028    0.8692    0.0610    0.1846    0.4040
 1215.000    0.0010    0.0011    0.0024    0.0000    0.8655    0.0650    0.1838    0.4062
 1220.000    0.0008    0.0013    0.0032    0.0000    0.8660    0.0649    0.1831    0.4083
 1225.000    0.0006    0.0015    0.0020    0.0000    0.8731    0.0581    0.1909    0.4020
 1230.000    0.0000    0.0029    0.0000    0.0023    0.8706    0.0607    0.1907    0.4035
 1235.000    0.0015    0.0005    0.0000    0.0017    0.8675    0.0643    0.1918    0.4038
 1240.000    0.0009    0.0010    0.0022    0.0000    0.8694    0.0626    0.1893    0.4074
 1245.000    0.0004    0.0016    0.0002    0.0013    0.8730    0.0592    0.1938    0.4043
 1250.000    0.0000    0.0025    0.0014    0.0001    0.8720    0.0606    0.1957    0.4040
 1255.000    0.0013    0.0006    0.0000    0.0038    0.8680    0.0649    0.1967    0.4042
 1260.000    0.0006    0.0012    0.0007    0.0007    0.8723    0.0609    0.1951    0.4073
 1265.000    0.0010    0.0008    0.0021    0.0000    0.8762    0.0574    0.1984    0.4059
 1270.000    0.0010    0.0008    0.0020    0.0000    0.8743    0.0593    0.2020    0.4033
 1275.000    0.0025    0.0000    0.0000    0.0019    0.8687    0.0652    0.2029    0.4039
 1280.000    0.0014    0.0003    0.0000    0.0036    0.8735    0.0609    0.2025    0.4055
 1285.000    0.0003    0.0015    0.0026    0.0000    0.8771    0.0574    0.2036    0.4056
 1290.000    0.0000    0.0017    0.0025    0.0000    0.8731    0.0617    0.2091    0.4019
 1295.000    0.0005    0.0011    0.0010    0.0002    0.8700    0.0649    0.2091    0.4034
 1300.000    0.0015    0.0002    0.0000    0.0020    0.8747    0.0604    0.2083    0.4057
 1305.000    0.0020    0.0000    0.0000    0.0034    0.8767    0.0587    0.2064    0.4091
 1310.000    0.0000    0.0026    0.0031    0.0000    0.8735    0.0621    0.2118    0.4052
 1315.000    0.0023    0.0000    0.0036    0.0000    0.8718    0.0639    0.2146    0.4039
 1320.000    0.0012    0.0004    0.0012    0.0000    0.8782    0.0578    0.2135    0.4063
 1325.000    0.0000    0.0024    0.0000    0.0035    0.8803    0.0560    0.2128    0.4085
 1330.000    0.0000    0.0030    0.0000    0.0019    0.8760    0.0604    0.2162    0.4060
 1335.000    0.0013    0.0002    0.0022    0.0000    0.8727    0.0638    0.2195    0.4039
 1340.000    0.0002    0.0013    0.0027    0.0000    0.8770    0.0594    0.2199    0.4048
 1345.000    0.0013    0.0001    0.0006    0.0004    0.8811    0.0553    0.2174    0.4083
 1350.000    0.0004    0.0011    0.0000    0.0047    0.8770    0.0590    0.2213    0.4054
 1355.000    0.0024    0.0000    0.0000    0.0017    0.8754    0.0602    0.2257    0.4023
 1360.000    0.0000    0.0018    0.0040    0.0000    0.8782    0.0572    0.2284    0.4007
 1365.000    0.0000    0.0021    0.0034    0.0000    0.8813    0.0536    0.2232    0.4068
 1370.000    0.0000    0.0017    0.0000    0.0020    0.8759    0.0589    0.2257    0.4055
 1375.000    0.0015    0.0000    0.0000    0.0065    0.8757    0.0592    0.2297    0.4023
 1380.000    0.0019    0.0000    0.0000    0.0009    0.8818    0.0537    0.2311    0.4014
 1385.000    0.0009    0.0005    0.0041    0.0000    0.8826    0.0528    0.2277    0.4046
 1390.000    0.0000    0.0028    0.0011    0.0000    0.8769    0.0581    0.2285    0.4029
 1395.000    0.0015    0.0000    0.0000    0.0030    0.8774    0.0575    0.2335    0.3968
 1400.000    0.0007    0.0006    0.0000    0.0037    0.8819    0.0533    0.2340    0.3953
 1405.000    0.0000    0.0014    0.0007    0.0000    0.8838    0.0520    0.2329    0.3961
 1410.000    0.0000    0.0022    0.0055    0.0000    0.8770    0.0591    0.2335    0.3957
 1415.000    0.0001    0.0011    0.0023    0.0000    0.8793    0.0570    0.2377    0.3924
 1420.000    0.0003    0.0009    0.0000    0.0044    0.8847    0.0521    0.2388    0.3929
 1425.000    0.0000    0.0025    0.0000    0.0021    0.8847    0.0526    0.2399    0.3943
 1430.000    0.0000    0.0033    0.0016    0.0000    0.8793    0.0582    0.2381    0.3983
 1435.000    0.0020    0.0000    0.0054    0.0000    0.8800    0.0577    0.2419    0.3969
 1440.000    0.0025    0.0000    0.0002    0.0004    0.8863    0.0518    0.2439    0.3974
 1445.000    0.0011    0.0001    0.0000    0.0043    0.8856    0.0526    0.2446    0.3992
 1450.000    0.0000    0.0017    0.0001    0.0006    0.8827    0.0557    0.2453    0.4008
 1455.000    0.0014    0.0000    0.0022    0.0000    0.8821    0.0566    0.2500    0.3984
 1460.000    0.0028    0.0000    0.0036    0.0000    0.8857    0.0533    0.2524    0.3980
 1465.000    0.0007    0.0004    0.0000    0.0010    0.8856    0.0536    0.2525    0.3998
 1470.000    0.0000    0.0014    0.0000    0.0045    0.8801    0.0590    0.2508    0.4031
 1475.000    0.0000    0.0017    0.0000    0.0029    0.8811    0.0580    0.2534    0.4023
 1480.000    0.0022    0.0000    0.0024    0.0000    0.8835    0.0558    0.2566    0.4008
 1485.000    0.0030    0.0000    0.0050    0.0000    0.8872    0.0525    0.2594    0.3997
 1490.000    0.0039    0.0000    0.0000    0.0007    0.8877    0.0522    0.2583    0.4023
 1495.000    0.0058    0.0000    0.0000    0.0023    0.8875    0.0525    0.2558    0.4062
 1500.000    0.0067    0.0000    0.0008    0.0000    0.8847    0.0555    0.2584    0.4051
 1505.000    0.0013    0.0000    0.0000    0.0046    0.8832    0.0572    0.2642    0.4009
 1510.000    0.0000    0.0076    0.0000    0.0028    0.8842    0.0562    0.2691    0.3974
 1515.000    0.0000    0.0034    0.0001    0.0005    0.8888    0.0518    0.2691    0.3985
 1520.000    0.0063    0.0000    0.0049    0.0000    0.8876    0.0530    0.2654    0.4035
 1525.000    0.0005    0.0005    0.0019    0.0000    0.8872    0.0536    0.2685    0.4015
 1530.000    0.0000    0.0070    0.0000    0.0052    0.8879    0.0531    0.2714    0.3999
 1535.000    0.0000    0.0033    0.0000    0.0037    0.8899    0.0513    0.2749    0.3976
 1540.000    0.0047    0.0000    0.0000    0.0021    0.8872    0.0541    0.2740    0.3995
 1545.000    0.0028    0.0000    0.0032    0.0000    0.8869    0.0544    0.2717    0.4028
 1550.000    0.0000    0.0044    0.0043    0.0000    0.8840    0.0573    0.2771    0.3985
 1555.000    0.0000    0.0030    0.0000    0.0016    0.8874    0.0541    0.2815    0.3951
 1560.000    0.0057    0.0000    0.0000    0.0022    0.8906    0.0510    0.2817    0.3959
 1565.000    0.0036    0.0000    0.0007    0.0000    0.8899    0.0518    0.2795    0.3988
 1570.000    0.0000    0.0069    0.0014    0.0000    0.8885    0.0533    0.2799    0.3993
 1575.000    0.0000    0.0087    0.0016    0.0000    0.8883    0.0535    0.2821    0.3980
 1580.000    0.0002    0.0008    0.0000    0.0004    0.8890    0.0528    0.2820    0.3988
 1585.000    0.0051    0.0000    0.0000    0.0025    0.8904    0.0514    0.2839    0.3977
 1590.000    0.0000    0.0028    0.0004    0.0000    0.8926    0.0494    0.2853    0.3971
 1595.000    0.0000    0.0037    0.0000    0.0014    0.8910    0.0511    0.2867    0.3964
 1600.000    0.0031    0.0000    0.0029    0.0000    0.8897    0.0525    0.2902    0.3934
 1605.000    0.0023    0.0000    0.0007    0.0000    0.8928    0.0496    0.2915    0.3928
 1610.000    0.0000    0.0017    0.0000    0.0051    0.8943    0.0482    0.2888    0.3961
 1615.000    0.0000    0.0025    0.0000    0.0022    0.8900    0.0523    0.2899    0.3955
 1620.000    0.0010    0.0000    0.0011    0.0000    0.8893    0.0531    0.2939    0.3920
 1625.000    0.0018    0.0000    0.0023    0.0000    0.8931    0.0493    0.2944    0.3921
 1630.000    0.0000    0.0035    0.0000    0.0003    0.8944    0.0481    0.2936    0.3929
 1635.000    0.0000    0.0040    0.0000    0.0006    0.8868    0.0556    0.2927    0.3938
 1640.000    0.0000    0.0015    0.0000    0.0006    0.8830    0.0594    0.2930    0.3939
 1645.000    0.0020    0.0000    0.0000    0.0024    0.8916    0.0511    0.2965    0.3912
 1650.000    0.0036    0.0000    0.0000    0.0015    0.8939    0.0487    0.2975    0.3901
 1655.000    0.0033    0.0000    0.0000    0.0018    0.8934    0.0494    0.2989    0.3892
 1660.000    0.0000    0.0015    0.0000    0.0035    0.8891    0.0536    0.3044    0.3840
 1665.000    0.0023    0.0000    0.0000    0.0030    0.8883    0.0543    0.3083    0.3799
 1670.000    0.0083    0.0000    0.0000    0.0012    0.8896    0.0532    0.2995    0.3886
 1675.000    0.0040    0.0000    0.0051    0.0000    0.8923    0.0505    0.2974    0.3907
 1680.000    0.0000    0.0066    0.0045    0.0000    0.8936    0.0492    0.3042    0.3838
 1685.000    0.0000    0.0060    0.0000    0.0035    0.8959    0.0469    0.3051    0.3828
 1690.000    0.0071    0.0000    0.0000    0.0049    0.8989    0.0439    0.3054    0.3824
 1695.000    0.0052    0.0000    0.0000    0.0035    0.8982    0.0446    0.3019    0.3857
 1700.000    0.0000    0.0086    0.0000    0.0009    0.8953    0.0473    0.3058    0.3818
 1705.000    0.0000    0.0065    0.0051    0.0000    0.8951    0.0474    0.3109    0.3765
 1710.000    0.0060    0.0000    0.0000    0.0012    0.8959    0.0466    0.3124    0.3749
 1715.000    0.0064    0.0000    0.0000    0.0046    0.8976    0.0448    0.3160    0.3709
 1720.000    0.0000    0.0016    0.0000    0.0006    0.8980    0.0445    0.3131    0.3738
 1725.000    0.0000    0.0047    0.0015    0.0000    0.8916    0.0509    0.3125    0.3741
 1730.000    0.0035    0.0000    0.0062    0.0000    0.8920    0.0504    0.3126    0.3732
 1735.000    0.0072    0.0000    0.0000    0.0006    0.9004    0.0423    0.3126    0.3733
 1740.000    0.0013    0.0000    0.0000    0.0029    0.9037    0.0391    0.3141    0.3714
 1745.000    0.0000    0.0040    0.0027    0.0000    0.8932    0.0494    0.3159    0.3690
 1750.000    0.0000    0.0024    0.0000    0.0024    0.8933    0.0494    0.3155    0.3692
 1755.000    0.0000    0.0035    0.0000    0.0031    0.9036    0.0394    0.3193    0.3651
 1760.000    0.0000    0.0008    0.0021    0.0000    0.9045    0.0386    0.3226    0.3613
 1765.000    0.0000    0.0025    0.0000    0.0016    0.8872    0.0556    0.3120    0.3712
 1770.000    0.0000    0.0042    0.0000    0.0018    0.8828    0.0599    0.3117    0.3709
 1775.000    0.0000    0.0027    0.0056    0.0000    0.8875    0.0553    0.3151    0.3671
 1780.000    0.0000    0.0022    0.0044    0.0000    0.8950    0.0480    0.3146    0.3672
 1785.000    0.0020    0.0000    0.0000    0.0040    0.9018    0.0414    0.3226    0.3588
 1790.000    0.0009    0.0000    0.0000    0.0100    0.8965    0.0464    0.3246    0.3563
 1795.000    0.0000    0.0010    0.0000    0.0080    0.8995    0.0434    0.3201    0.3603
 1800.000    0.0000    0.0020    0.0000    0.0005    0.8975    0.0452    0.3201    0.3598
 1805.000    0.0000    0.0017    0.0010    0.0000    0.8945    0.0479    0.3231    0.3563
 1810.000    0.0000    0.0013    0.0000    0.0026    0.8969    0.0451    0.3253    0.3531
 1815.000    0.0010    0.0000    0.0015    0.0000    0.9006    0.0411    0.3251    0.3531
 1820.000    0.0000    0.0010    0.0011    0.0000    0.8926    0.0485    0.3267    0.3503
 1825.000    0.0000    0.0014    0.0008    0.0000    0.8918    0.0490    0.3261    0.3504
 1830.000    0.0011    0.0000    0.0000    0.0021    0.9000    0.0404    0.3244    0.3515
 1835.000    0.0037    0.0000    0.0000    0.0027    0.8958    0.0440    0.3281    0.3471
 1840.000    0.0000    0.0016    0.0000    0.0014    0.8928    0.0467    0.3272    0.3476
 1845.000    0.0000    0.0029    0.0000    0.0006    0.8997    0.0394    0.3258    0.3478
 1850.000    0.0000    0.0048    0.0019    0.0000    0.8956    0.0435    0.3308    0.3432
 1855.000    0.0000    0.0019    0.0000    0.0000    0.8891    0.0499    0.3266    0.3473
 1860.000    0.0011    0.0000    0.0000    0.0002    0.8967    0.0423    0.3276    0.3460
 1865.000    0.0000    0.0010    0.0000    0.0044    0.9069    0.0321    0.3328    0.3401
 1870.000    0.0000    0.0027    0.0025    0.0000    0.8968    0.0417    0.3281    0.3448
 1875.000    0.0004    0.0003    0.0082    0.0000    0.8909    0.0472    0.3341    0.3385
 1880.000    0.0000    0.0008    0.0004    0.0000    0.9000    0.0386    0.3361    0.3360
 1885.000    0.0004    0.0003    0.0000    0.0022    0.8995    0.0397    0.3311    0.3407
 1890.000    0.0000    0.0012    0.0000    0.0010    0.8947    0.0445    0.3338    0.3377
 1895.000    0.0000    0.0024    0.0000    0.0060    0.9012    0.0377    0.3328    0.3382
 1900.000    0.0000    0.0012    0.0006    0.0000    0.8963    0.0418    0.3341    0.3361
 1905.000    0.0000    0.0010    0.0052    0.0000    0.8963    0.0410    0.3432    0.3262
 1910.000    0.0000    0.0043    0.0025    0.0000    0.9013    0.0358    0.3344    0.3342
 1915.000    0.0000    0.0011    0.0000    0.0036    0.9066    0.0304    0.3349    0.3332
 1920.000    0.0005    0.0001    0.0000    0.0021    0.8913    0.0457    0.3383    0.3298
 1925.000    0.0009    0.0000    0.0029    0.0000    0.8950    0.0422    0.3373    0.3298
 1930.000    0.0018    0.0000    0.0000    0.0047    0.9026    0.0347    0.3375    0.3289
 1935.000    0.0000    0.0017    0.0019    0.0000    0.9002    0.0373    0.3397    0.3259
 1940.000    0.0000    0.0021    0.0000    0.0010    0.8953    0.0424    0.3380    0.3272
 1945.000    0.0000    0.0008    0.0049    0.0000    0.9055    0.0327    0.3391    0.3263
 1950.000    0.0000    0.0050    0.0000    0.0030    0.8961    0.0423    0.3435    0.3214
 1955.000    0.0030    0.0000    0.0000    0.0019    0.8993    0.0394    0.3419    0.3223
 1960.000    0.0000    0.0049    0.0027    0.0000    0.9033    0.0355    0.3390    0.3239
 1965.000    0.0000    0.0045    0.0000    0.0038    0.9072    0.0316    0.3443    0.3183
 1970.000    0.0000    0.0023    0.0032    0.0000    0.8977    0.0408    0.3446    0.3175
 1975.000    0.0000    0.0035    0.0000    0.0059    0.8992    0.0393    0.3421    0.3196
 1980.000    0.0000    0.0040    0.0044    0.0000    0.9018    0.0366    0.3458    0.3150
 1985.000    0.0000    0.0008    0.0000    0.0013    0.9042    0.0342    0.3423    0.3180
 1990.000    0.0025    0.0000    0.0000    0.0000    0.8979    0.0402    0.3390    0.3204
 1995.000    0.0009    0.0000    0.0015    0.0000    0.9030    0.0351    0.3469    0.3121
 2000.000    0.0000    0.0027    0.0000    0.0020    0.8934    0.0439    0.3377    0.3202
 2005.000    0.0006    0.0001    0.0052    0.0000    0.8986    0.0385    0.3458    0.3119
 2010.000    0.0025    0.0000    0.0000    0.0004    0.8986    0.0383    0.3449    0.3118
 2015.000    0.0018    0.0000    0.0044    0.0000    0.9110    0.0258    0.3413    0.3148
 2020.000    0.0000    0.0020    0.0000    0.0003    0.8956    0.0404    0.3451    0.3105
 2025.000    0.0012    0.0000    0.0005    0.0000    0.8971    0.0385    0.3475    0.3075
 2030.000    0.0024    0.0000    0.0000    0.0005    0.9108    0.0247    0.3501    0.3043
 2035.000    0.0000    0.0045    0.0019    0.0000    0.9057    0.0292    0.3573    0.2969
 2040.000    0.0000    0.0019    0.0000    0.0039    0.9033    0.0308    0.3496    0.3036
 2045.000    0.0000    0.0030    0.0039    0.0000    0.9172    0.0172    0.3471    0.3054
 2050.000    0.0000    0.0065    0.0000    0.0009    0.9090    0.0248    0.3605    0.2915
 2055.000    0.0012    0.0000    0.0000    0.0034    0.9089    0.0245    0.3514    0.3000
 2060.000    0.0000    0.0007    0.0000    0.0026    0.8994    0.0334    0.3491    0.3014
 2065.000    0.0000    0.0098    0.0000    0.0000    0.9207    0.0127    0.3589    0.2918
 2070.000    0.0017    0.0000    0.0005    0.0000    0.9012    0.0307    0.3510    0.2984
 2075.000    0.0083    0.0000    0.0000    0.0041    0.9168    0.0156    0.3483    0.2999
 2080.000    0.0063    0.0000    0.0069    0.0000    0.9199    0.0123    0.3591    0.2890
 2085.000    0.0000    0.0019    0.0000    0.0073    0.9116    0.0194    0.3581    0.2885
 2090.000    0.0024    0.0000    0.0226    0.0000    0.9014    0.0291    0.3470    0.2975
 2095.000    0.0020    0.0000    0.0000    0.0003    0.9282    0.0031    0.3547    0.2898
 2100.000    0.0000    0.0118    0.0003    0.0000    0.9107    0.0198    0.3569    0.2862
 2105.000    0.0023    0.0000    0.0000    0.0023    0.9109    0.0191    0.3516    0.2905
 2110.000    0.0000    0.0072    0.0000    0.0086    0.9101    0.0197    0.3715    0.2698
 2115.000    0.0000    0.0027    0.0249    0.0000    0.9195    0.0098    0.3560    0.2829
 2120.000    0.0047    0.0000    0.0000    0.0172    0.9031    0.0244    0.3365    0.2997
 2125.000    0.0114    0.0000    0.0245    0.0000    0.9226    0.0058    0.3690    0.2663
 2130.000    0.0091    0.0000    0.0000    0.0184    0.9385    0.0000    0.3370    0.2949
 2135.000    0.0022    0.0000    0.0098    0.0000    0.9131    0.0133    0.3417    0.2876
 2140.000    0.0000    0.0207    0.0000    0.0061    0.8880    0.0371    0.3546    0.2726
 2145.000    0.0000    0.0007    0.0000    0.0000    0.9209    0.0058    0.3363    0.2879
 2150.000    0.0000    0.0047    0.0042    0.0000    0.9125    0.0140    0.3467    0.2751
 2155.000    0.0000    0.0035    0.0000    0.0169    0.8915    0.0341    0.3759    0.2443
 2160.000    0.0010    0.0000    0.0180    0.0000    0.9000    0.0263    0.3374    0.2758
 2165.000    0.0000    0.0069    0.0000    0.0098    0.9249    0.0033    0.3269    0.2818
 2170.000    0.0015    0.0000    0.0065    0.0000    0.8902    0.0370    0.3604    0.2449
 2175.000    0.0000    0.0026    0.0005    0.0000    0.9117    0.0171    0.3447    0.2527
 2180.000    0.0021    0.0000    0.0035    0.0000    0.9167    0.0119    0.3389    0.2494
 2185.000    0.0161    0.0000    0.0000    0.0023    0.9283    0.0011    0.3393    0.2406
 2190.000    0.0006    0.0006    0.0000    0.0105    0.8867    0.0408    0.3211    0.2491
 2195.000    0.0000    0.0023    0.0027    0.0000    0.9178    0.0108    0.3269    0.2337
 2200.000    0.0000    0.0018    0.0000    0.0017    0.9135    0.0161    0.3175    0.2344
 2205.000    0.0000    0.0063    0.0062    0.0000    0.9058    0.0242    0.3206    0.2266
 2210.000    0.0000    0.0028    0.0000    0.0026    0.9040    0.0255    0.3051    0.2355
 2215.000    0.0017    0.0000    0.0041    0.0000    0.8968    0.0317    0.3135    0.2229
 2220.000    0.0029    0.0000    0.0000    0.0017    0.9156    0.0134    0.3128    0.2208
 2225.000    0.0000    0.0027    0.0000    0.0060    0.9078    0.0211    0.3102    0.2230
 2230.000    0.0000    0.0014    0.0002    0.0000    0.9089    0.0205    0.3051    0.2288
 2235.000    0.0004    0.0000    0.0000    0.0000    0.9041    0.0251    0.2987    0.2358
 2240.000    0.0059    0.0000    0.0000    0.0011    0.8998    0.0293    0.3177    0.2189
 2245.000    0.0000    0.0014    0.0107    0.0000    0.9019    0.0272    0.3097    0.2284
 2250.000    0.0000    0.0117    0.0001    0.0000    0.9047    0.0242    0.3160    0.2252
 2255.000    0.0051    0.0000    0.0000    0.0035    0.9014    0.0272    0.3171    0.2257
 2260.000    0.0000    0.0103    0.0000    0.0000    0.8893    0.0386    0.3086    0.2359
 2265.000    0.0061    0.0000    0.0048    0.0000    0.9012    0.0274    0.3163    0.2300
 2270.000    0.0000    0.0037    0.0000    0.0000    0.9178    0.0110    0.3230    0.2275
 2275.000    0.0022    0.0000    0.0112    0.0000    0.9087    0.0195    0.3192    0.2324
 2280.000    0.0000    0.0027    0.0000    0.0143    0.9181    0.0094    0.3183    0.2344
 2285.000    0.0113    0.0000    0.0083    0.0000    0.9078    0.0194    0.3227    0.2325
 2290.000    0.0000    0.0113    0.0000    0.0000    0.9141    0.0133    0.3317    0.2259
 2295.000    0.0000    0.0065    0.0000    0.0110    0.9034    0.0241    0.3307    0.2287
 2300.000    0.0019    0.0000    0.0006    0.0000    0.8983    0.0282    0.3330    0.2258
 2305.000    0.0128    0.0000    0.0028    0.0000    0.9081    0.0187    0.3165    0.2432
 2310.000    0.0041    0.0000    0.0015    0.0000    0.9153    0.0120    0.3307    0.2314
 2315.000    0.0133    0.0000    0.0000    0.0026    0.8977    0.0272    0.3271    0.2344
 2320.000    0.0000    0.0113    0.0039    0.0000    0.8895    0.0343    0.3181    0.2417
 2325.000    0.0008    0.0000    0.0000    0.0060    0.9095    0.0152    0.3199    0.2412
 2330.000    0.0072    0.0000    0.0088    0.0000    0.9110    0.0126    0.3386    0.2241
 2335.000    0.0000    0.0094    0.0000    0.0000    0.9282    0.0000    0.3466    0.2155
 2340.000    0.0125    0.0000    0.0000    0.0000    0.9056    0.0182    0.3254    0.2351
 2345.000    0.0070    0.0000    0.0000    0.0024    0.8961    0.0251    0.3378    0.2238
 2350.000    0.0027    0.0000    0.0178    0.0000    0.8957    0.0267    0.3389    0.2217
 2355.000    0.0000    0.0026    0.0000    0.0112    0.8919    0.0287    0.3399    0.2207
 2360.000    0.0000    0.0219    0.0102    0.0000    0.8896    0.0314    0.3220    0.2372
 2365.000    0.0033    0.0000    0.0000    0.0029    0.9180    0.0023    0.3209    0.2356
 2370.000    0.0004    0.0005    0.0037    0.0000    0.9183    0.0025    0.3543    0.2032
 2375.000    0.0000    0.0071    0.0000    0.0037    0.9107    0.0102    0.3387    0.2165
 2380.000    0.0000    0.0085    0.0086    0.0000    0.9176    0.0023    0.3280    0.2266
 2385.000    0.0047    0.0000    0.0023    0.0000    0.9112    0.0074    0.3313    0.2197
 2390.000    0.0151    0.0000    0.0160    0.0000    0.9001    0.0180    0.3276    0.2235
 2395.000    0.0034    0.0000    0.0111    0.0000    0.8929    0.0226    0.3343    0.2126
 2400.000    0.0000    0.0000    0.0000    0.0102    0.9293    0.0000    0.3410    0.2055
 2405.000    0.0071    0.0000    0.0074    0.0000    0.9106    0.0066    0.3377    0.2067
 2410.000    0.0000    0.0075    0.0000    0.0060    0.9104    0.0039    0.3345    0.2059
 2415.000    0.0204    0.0000    0.0000    0.0010    0.8938    0.0195    0.3502    0.1858
 2420.000    0.0000    0.0147    0.0000    0.0154    0.9098    0.0040    0.3162    0.2149
 2425.000    0.0128    0.0000    0.0168    0.0000    0.9096    0.0035    0.3138    0.2145
 2430.000    0.0058    0.0000    0.0105    0.0000    0.9208    0.0000    0.3501    0.1723
 2435.000    0.0000    0.0113    0.0031    0.0000    0.8984    0.0149    0.3106    0.2081
 2440.000    0.0005    0.0000    0.0000    0.0092    0.9228    0.0000    0.3265    0.1838
 2445.000    0.0020    0.0000    0.0000    0.0000    0.8871    0.0224    0.3167    0.1943
 2450.000    0.0000    0.0109    0.0143    0.0000    0.9466    0.0000    0.3530    0.1540
 2455.000    0.0148    0.0000    0.0208    0.0000    0.8960    0.0066    0.3018    0.1957
 2460.000    0.0051    0.0000    0.0000    0.0000    0.9045    0.0000    0.3024    0.1917
 2465.000    0.0000    0.0321    0.0000    0.0000    0.9517    0.0000    0.2731    0.2111
 2470.000    0.0000    0.0068    0.0000    0.0000    0.8913    0.0056    0.3076    0.1716
 2475.000    0.0113    0.0000    0.0000    0.0000    0.9062    0.0000    0.2732    0.2095
 2480.000    0.0175    0.0042    0.0121    0.0000    0.9297    0.0000    0.3296    0.1456
 2485.000    0.0000    0.0000    0.0000    0.0000    0.8473    0.0241    0.3012    0.1702
 2490.000    0.0000    0.0252    0.0048    0.0000    0.9536    0.0000    0.3269    0.1521
 2495.000    0.0045    0.0129    0.0000    0.0000    0.8885    0.0000    0.2778    0.1767
 2500.000    0.0014    0.0152    0.0000    0.0000    0.9242    0.0000    0.3137    0.1499
